>compound (8<I>R</I>,9<I>S</I>,10<I>R</I>,13<I>S</I>,14<I>S</I>)-10,13-dimethyl-6-methylidene-7,8,9,11,12,14,15,16-octahydrocyclopenta[a]phenanthrene-3,17-dione
>InChI InChI=1S/C20H24O2/c1-12-10-14-15-4-5-18(22)20(15,3)9-7-16(14)19(2)8-6-13(21)11-17(12)19/h6,8,11,14-16H,1,4-5,7,9-10H2,2-3H3/t14-,15-,16-,19+,20-/m0/s1
>InChIKey BFYIZQONLCFLEV-DAELLWKTSA-N
>smarts C[C@]12CC[C@H]3[C@H]([C@@H]1CCC2=O)CC(=C)C4=CC(=O)C=C[C@]34C
>ionization [M+H]+
>parentmass 297.184900
#id EAX066101
#rt 10.100000
#mf C20H24O2
#canonical_smiles CC12CCC3C(C1CCC2=O)CC(=C)C4=CC(=O)C=CC34C
#xlogp 3.100000
#pubchem 60198
#chemspider 54278
#exact_mass 296.177600

>ms2
53.0385500 38.0000000
67.0542333 122.0000000
77.0386125 235.0000000
79.0542300 830.0000000
81.0699300 127.0000000
91.0542154 999.0000000
93.0698643 999.0000000
95.0489000 51.0000000
95.0854444 107.0000000
97.0647583 177.0000000
103.0542333 117.0000000
105.0446500 51.0000000
105.0699000 804.0000000
107.0492600 84.0000000
107.0854846 542.0000000
109.0648714 58.0000000
109.1011000 25.0000000
115.0541750 168.0000000
116.0621000 64.0000000
117.0699143 161.0000000
119.0602500 52.0000000
119.0854727 231.0000000
121.0648000 923.0000000
121.1011714 999.0000000
123.0806600 35.0000000
123.1168500 5.0000000
128.0619333 110.0000000
129.0699100 140.0000000
130.0778167 80.0000000
131.0855429 272.0000000
132.0568667 128.0000000
133.0648400 71.0000000
133.1011818 86.0000000
135.0804357 440.0000000
135.1168857 73.0000000
137.0960600 17.0000000
141.0698667 62.0000000
142.0774500 68.0000000
143.0854375 86.0000000
145.0646800 106.0000000
145.1011500 339.0000000
146.0726333 58.0000000
147.0804083 406.0000000
147.1169000 123.0000000
149.0960769 999.0000000
157.1015333 45.0000000
158.0726500 85.0000000
159.0804083 168.0000000
161.0959400 186.0000000
161.1325000 11.0000000
163.1117500 132.0000000
165.0700000 44.0000000
171.0803778 68.0000000
171.1168700 150.0000000
173.0960300 148.0000000
175.0749000 44.0000000
175.1117200 23.0000000
177.1271000 17.0000000
185.0959750 249.0000000
187.1115286 131.0000000
189.1274000 70.0000000
197.0959571 63.0000000
199.1114750 78.0000000
201.1275571 115.0000000
209.0962250 73.0000000
211.1114500 58.0000000
215.1069500 13.0000000
223.1119000 89.0000000
225.1276500 30.0000000
227.1430000 12.0000000
237.1271857 67.0000000
239.1427571 90.0000000
251.1428400 46.0000000
253.1585833 108.0000000
255.1378000 22.0000000
255.1743800 28.0000000
261.1636000 17.0000000
264.1505333 40.0000000
279.1742750 999.0000000
297.1849167 999.0000000